File: XRD_Data/standards/MAPbI3.txt
0.0000	0.0000e+00
0.2675	0.0000e+00
0.5350	0.0000e+00
0.8025	0.0000e+00
1.0700	0.0000e+00
1.3375	0.0000e+00
1.6050	0.0000e+00
1.8725	0.0000e+00
2.1400	0.0000e+00
2.4075	0.0000e+00
2.6750	0.0000e+00
2.9425	0.0000e+00
3.2100	0.0000e+00
3.4775	0.0000e+00
3.7450	0.0000e+00
4.0125	0.0000e+00
4.2800	0.0000e+00
4.5475	0.0000e+00
4.8150	0.0000e+00
5.0825	0.0000e+00
5.3500	0.0000e+00
5.6175	0.0000e+00
5.8850	0.0000e+00
6.1525	0.0000e+00
6.4200	0.0000e+00
6.6875	0.0000e+00
6.9550	0.0000e+00
7.2225	0.0000e+00
7.4900	0.0000e+00
7.7575	0.0000e+00
8.0250	0.0000e+00
8.2925	0.0000e+00
8.5600	0.0000e+00
8.8275	0.0000e+00
9.0950	0.0000e+00
9.3625	0.0000e+00
9.6300	0.0000e+00
9.8975	0.0000e+00
10.1650	0.0000e+00
10.4325	0.0000e+00
10.7000	0.0000e+00
10.9675	0.0000e+00
11.2350	0.0000e+00
11.5025	0.0000e+00
11.7700	0.0000e+00
12.0375	0.0000e+00
12.3050	0.0000e+00
12.5725	0.0000e+00
12.8400	0.0000e+00
13.1075	0.0000e+00
13.3750	0.0000e+00
13.6425	0.0000e+00
13.9100	3.4251e+02
14.1775	7.1794e+02
14.4450	0.0000e+00
14.7125	0.0000e+00
14.9800	0.0000e+00
15.2475	0.0000e+00
15.5150	0.0000e+00
15.7825	0.0000e+00
16.0500	0.0000e+00
16.3175	0.0000e+00
16.5850	0.0000e+00
16.8525	0.0000e+00
17.1200	0.0000e+00
17.3875	0.0000e+00
17.6550	0.0000e+00
17.9225	0.0000e+00
18.1900	0.0000e+00
18.4575	0.0000e+00
18.7250	0.0000e+00
18.9925	0.0000e+00
19.2600	0.0000e+00
19.5275	0.0000e+00
19.7950	1.0211e+00
20.0625	8.1971e+01
20.3300	0.0000e+00
20.5975	0.0000e+00
20.8650	0.0000e+00
21.1325	0.0000e+00
21.4000	0.0000e+00
21.6675	0.0000e+00
21.9350	0.0000e+00
22.2025	0.0000e+00
22.4700	0.0000e+00
22.7375	0.0000e+00
23.0050	0.0000e+00
23.2725	0.0000e+00
23.5400	1.9400e+02
23.8075	0.0000e+00
24.0750	0.0000e+00
24.3425	1.4404e-02
24.6100	1.2876e+01
24.8775	0.0000e+00
25.1450	0.0000e+00
25.4125	0.0000e+00
25.6800	0.0000e+00
25.9475	0.0000e+00
26.2150	0.0000e+00
26.4825	0.0000e+00
26.7500	0.0000e+00
27.0175	0.0000e+00
27.2850	0.0000e+00
27.5525	0.0000e+00
27.8200	0.0000e+00
28.0875	3.2437e+02
28.3550	4.6832e-02
28.6225	6.4001e+01
28.8900	0.0000e+00
29.1575	0.0000e+00
29.4250	0.0000e+00
29.6925	0.0000e+00
29.9600	0.0000e+00
30.2275	0.0000e+00
30.4950	0.0000e+00
30.7625	3.7787e-02
31.0300	5.2057e+00
31.2975	0.0000e+00
31.5650	1.9856e+02
31.8325	7.2241e+01
32.1000	1.2621e+01
32.3675	0.0000e+00
32.6350	0.0000e+00
32.9025	0.0000e+00
33.1700	0.0000e+00
33.4375	0.0000e+00
33.7050	0.0000e+00
33.9725	0.0000e+00
34.2400	0.0000e+00
34.5075	0.0000e+00
34.7750	4.7056e+01
35.0425	8.6987e+01
35.3100	0.0000e+00
35.5775	0.0000e+00
35.8450	0.0000e+00
36.1125	0.0000e+00
36.3800	0.0000e+00
36.6475	0.0000e+00
36.9150	0.0000e+00
37.1825	9.5642e-02
37.4500	3.5384e-01
37.7175	0.0000e+00
37.9850	0.0000e+00
38.2525	0.0000e+00
38.5200	0.0000e+00
38.7875	0.0000e+00
39.0550	0.0000e+00
39.3225	0.0000e+00
39.5900	0.0000e+00
39.8575	0.0000e+00
40.1250	0.0000e+00
40.3925	4.7064e+01
40.6600	5.0259e-01
40.9275	9.9710e-01
41.1950	0.0000e+00
41.4625	0.0000e+00
41.7300	0.0000e+00
41.9975	0.0000e+00
42.2650	2.3636e+01
42.5325	7.0221e+00
42.8000	3.1052e+01
43.0675	2.3407e+02
43.3350	4.3320e+01
43.6025	9.1906e-05
43.8700	0.0000e+00
44.1375	0.0000e+00
44.4050	0.0000e+00
44.6725	0.0000e+00
44.9400	0.0000e+00
45.2075	5.0705e+00
45.4750	0.0000e+00
45.7425	7.4532e-01
46.0100	1.9648e-01
46.2775	0.0000e+00
46.5450	0.0000e+00
46.8125	0.0000e+00
47.0800	0.0000e+00
47.3475	6.6297e-02
47.6150	6.1374e+00
47.8825	0.0000e+00
48.1500	8.1168e-01
48.4175	1.3484e-07
48.6850	0.0000e+00
48.9525	0.0000e+00
49.2200	0.0000e+00
49.4875	0.0000e+00
49.7550	0.0000e+00
50.0225	5.4461e-06
50.2900	7.8283e+01
50.5575	0.0000e+00
50.8250	0.0000e+00
51.0925	0.0000e+00
51.3600	0.0000e+00
51.6275	3.0596e-03
51.8950	3.5014e-01
52.1625	4.3834e+01
52.4300	5.1732e+00
52.6975	9.0450e+00
52.9650	2.6706e-04
53.2325	0.0000e+00
53.5000	0.0000e+00
53.7675	0.0000e+00
54.0350	0.0000e+00
54.3025	1.2280e+01
54.5700	4.5609e+00
54.8375	2.6754e+00
55.1050	0.0000e+00
55.3725	0.0000e+00
55.6400	1.2414e+00
55.9075	1.0749e-03
56.1750	4.5761e+00
56.4425	2.0633e+00
56.7100	1.6479e-07
56.9775	0.0000e+00
57.2450	0.0000e+00
57.5125	0.0000e+00
57.7800	0.0000e+00
58.0475	1.6138e+01
58.3150	3.0094e-06
58.5825	0.0000e+00
58.8500	3.1483e-05
59.1175	8.3732e+00
59.3850	0.0000e+00
59.6525	0.0000e+00
59.9200	2.0975e-03
60.1875	4.3496e+00
60.4550	2.1481e+00
60.7225	1.0092e+00
60.9900	1.4137e+01
61.2575	5.2515e-03
61.5250	0.0000e+00
61.7925	0.0000e+00
62.0600	7.4532e+00
62.3275	2.6079e-06
62.5950	2.0926e-04
62.8625	5.9410e-01
63.1300	1.6412e+00
63.3975	0.0000e+00
63.6650	3.7823e-02
63.9325	3.0279e-03
64.2000	2.0780e+00
64.4675	1.6384e+01
64.7350	2.4696e-04
65.0025	8.7460e-01
65.2700	0.0000e+00
65.5375	0.0000e+00
65.8050	2.9479e-02
66.0725	1.5470e+00
66.3400	0.0000e+00
66.6075	9.6906e+00
66.8750	1.1610e+01
67.1425	0.0000e+00
67.4100	2.7313e-04
67.6775	1.4218e+00
67.9450	5.0952e+00
68.2125	7.9559e+00
68.4800	2.4853e+01
68.7475	3.4408e+00
69.0150	0.0000e+00
69.2825	0.0000e+00
69.5500	0.0000e+00
69.8175	0.0000e+00
70.0850	1.1226e+00
70.3525	7.2464e+00
70.6200	1.7204e-05
70.8875	1.3076e+00
71.1550	0.0000e+00
71.4225	0.0000e+00
71.6900	2.5022e-05
71.9575	5.7004e+00
72.2250	1.1200e-06
72.4925	0.0000e+00
72.7600	0.0000e+00
73.0275	0.0000e+00
73.2950	1.1417e+00
73.5625	6.3618e-03
73.8300	1.3621e-05
74.0975	9.6478e+00
74.3650	0.0000e+00
74.6325	2.1488e-01
74.9000	1.1779e+00
75.1675	4.0842e+00
75.4350	1.4199e+00
75.7025	6.6188e-02
75.9700	5.1824e-01
76.2375	6.8968e-03
76.5050	4.9910e-01
76.7725	1.3957e-05
77.0400	6.7152e+00
77.3075	4.1443e+00
77.5750	1.9363e-04
77.8425	1.2550e+01
78.1100	4.9942e-01
78.3775	3.8483e-03
78.6450	2.0112e-03
78.9125	1.1970e-01
79.1800	1.8372e+00
79.4475	3.2887e-02
79.7150	3.5234e-02
79.9825	0.0000e+00
80.0000	0.0000e+00