File: XRD_Data/standards/MAPbCl3.txt
5	0
5.16	0
5.32	0
5.48	0
5.64	0
5.8	0
5.96	0
6.12	0
6.28	0
6.44	0
6.6	0
6.76	0
6.92	0
7.08	0
7.24	0
7.4	0
7.56	0
7.72	0
7.88	0
8.04	0
8.2	0
8.36	0
8.52	0
8.68	0
8.84	0
9	0
9.16	0
9.32	0
9.48	0
9.64	0
9.8	0
9.96	0
10.12	0
10.28	0
10.44	0
10.6	0
10.76	0
10.92	0
11.08	0
11.24	0
11.4	0
11.56	0
11.72	0
11.88	0
12.04	0
12.2	0
12.36	0
12.52	0
12.68	0
12.84	0
13	0
13.16	0
13.32	0
13.48	0
13.64	0
13.8	0
13.96	0
14.12	11.0229
14.28	14.1126
14.44	18.7086
14.6	25.9749
14.76	38.461
14.92	62.6709
15.08	119.521
15.24	309.465
15.4	1962.62
15.56	3629.23
15.72	391.927
15.88	138.244
16.04	69.5895
16.2	41.7349
16.36	27.7732
16.52	19.7999
16.68	14.8238
16.84	11.5118
17	0
17.16	0
17.32	0
17.48	0
17.64	0
17.8	0
17.96	0
18.12	0
18.28	0
18.44	0
18.6	0
18.76	0
18.92	0
19.08	0
19.24	0
19.4	0
19.56	0
19.72	0
19.88	0
20.04	0
20.2	0
20.36	0
20.52	0
20.68	7.74312
20.84	10.0631
21	13.6051
21.16	19.405
21.32	29.8806
21.48	51.8075
21.64	110.616
21.8	373.172
21.96	5458.81
22.12	604.493
22.28	142.536
22.44	61.4799
22.6	33.9934
22.76	21.5184
22.92	14.8305
23.08	10.8357
23.24	8.26112
23.4	6.50565
23.56	0
23.72	0
23.88	0
24.04	0
24.2	0
24.36	0
24.52	0
24.68	0
24.84	0
25	0
25.16	0
25.32	0
25.48	0
25.64	0.708698
25.8	0.908996
25.96	1.20788
26.12	1.68241
26.28	2.50266
26.44	4.10725
26.6	7.93189
26.76	21.1061
26.92	150.129
27.08	187.484
27.24	22.9733
27.4	8.35736
27.56	4.26464
27.72	2.57717
27.88	1.72335
28.04	1.23273
28.2	0.925189
28.36	0.71983
28.52	0
28.68	0
28.84	0
29	0
29.16	0
29.32	0
29.48	0
29.64	0
29.8	0
29.96	4.2159
30.12	5.4542
30.28	7.32987
30.44	10.3684
30.6	15.7723
30.76	26.8146
30.92	55.1879
31.08	170.002
31.24	2100.12
31.4	464.754
31.56	92.7162
31.72	38.0348
31.88	20.5197
32.04	12.8022
32.2	8.73934
32.36	6.34217
32.52	4.81093
32.68	3.77385
32.84	0
33	0
33.16	0
33.32	0
33.48	0
33.64	5.48485
33.8	6.93048
33.96	9.03267
34.12	12.2583
34.28	17.5762
34.44	27.2762
34.6	47.8969
34.76	104.782
34.92	376.583
35.08	5453.94
35.24	448.873
35.4	114.968
35.56	50.9948
35.72	28.5952
35.88	18.2544
36.04	12.6517
36.2	9.28076
36.36	7.09683
36.52	5.60176
36.68	0
36.84	0
37	0
37.16	3.06328
37.32	3.90167
37.48	5.13769
37.64	7.06881
37.8	10.3327
37.96	16.5072
38.12	30.426
38.28	73.3127
38.44	352.704
38.6	1887.82
38.76	145.319
38.92	46.2905
39.08	22.3163
39.24	13.0711
39.4	8.57
39.56	6.04763
39.72	4.4942
39.88	3.47041
40.04	0
40.2	0
40.36	0
40.52	0
40.68	0
40.84	0
41	0
41.16	0
41.32	0
41.48	0
41.64	0
41.8	0
41.96	0
42.12	0
42.28	0
42.44	0
42.6	0
42.76	0
42.92	0
43.08	0
43.24	0
43.4	1.95619
43.56	2.48063
43.72	3.24797
43.88	4.43489
44.04	6.41346
44.2	10.081
44.36	18.0804
44.52	41.2234
44.68	166.269
44.84	1815.25
45	123.072
45.16	35.1741
45.32	16.2426
45.48	9.29882
45.64	6.01135
45.8	4.20167
45.96	3.1009
46.12	2.38203
46.28	4.46476
46.44	3.2677
46.6	4.27634
46.76	5.83515
46.92	8.43048
47.08	13.2327
47.24	23.6771
47.4	53.7324
47.56	213.79
47.72	2445.78
47.88	166.641
48.04	47.1102
48.2	21.6642
48.36	12.3758
48.52	7.98994
48.68	5.57963
48.84	4.11521
49	3.15966
49.16	2.50194
49.32	0
49.48	0
49.64	0
49.8	0
49.96	0
50	0