File: XRD_Data/standards/pbbr2.txt
5	0
5.16	0
5.32	0
5.48	0
5.64	0
5.8	0
5.96	0
6.12	0
6.28	0
6.44	0
6.6	0
6.76	0
6.92	0
7.08	0
7.24	0
7.4	0
7.56	0
7.72	0
7.88	0
8.04	0
8.2	0
8.36	0
8.52	0
8.68	0
8.84	0
9	0
9.16	0
9.32	0
9.48	0
9.64	0
9.8	0
9.96	0
10.12	0
10.28	0
10.44	0
10.6	0
10.76	0
10.92	0
11.08	0
11.24	0
11.4	0
11.56	0
11.72	0
11.88	0
12.04	0
12.2	0
12.36	0
12.52	0
12.68	0
12.84	0
13	0.0664498
13.16	0.0844739
13.32	0.110958
13.48	0.152156
13.64	0.221367
13.8	0.351126
13.96	0.639399
14.12	1.50298
14.28	6.65663
14.44	50.3562
14.6	3.54893
14.76	1.08134
14.92	0.512002
15.08	0.297014
15.24	0.193574
15.4	0.136045
15.56	0.100802
15.72	0.0776657
15.88	0.061666
16.04	0
16.2	0
16.36	0
16.52	0
16.68	0
16.84	0
17	0
17.16	0
17.32	2.99964
17.48	3.81352
17.64	5.00956
17.8	6.87032
17.96	9.99695
18.12	15.8606
18.28	28.8937
18.44	67.9728
18.6	301.831
18.76	2258.77
18.92	159.556
19.08	48.6911
19.24	23.0689
19.4	15.3162
19.56	11.1649
19.72	9.31268
19.88	8.86064
20.04	9.69235
20.2	12.3932
20.36	22.8608
20.52	44.6483
20.68	147.716
20.84	1945.22
21	182.761
21.16	82.2836
21.32	93.1739
21.48	185.089
21.64	853.7
21.8	3067.89
21.96	1719.07
22.12	633.892
22.28	148.978
22.44	75.517
22.6	54.491
22.76	49.6576
22.92	56.0447
23.08	78.6608
23.24	138.67
23.4	405.432
23.56	4617.97
23.72	1277.8
23.88	345.118
24.04	198.937
24.2	65.3847
24.36	37.2256
24.52	24.5078
24.68	17.4487
24.84	13.0811
25	10.1798
25.16	0.56899
25.32	0.44323
25.48	0
25.64	0
25.8	0
25.96	0
26.12	0
26.28	0
26.44	0
26.6	0
26.76	0
26.92	0
27.08	0
27.24	0
27.4	3.40032
27.56	7.90495
27.72	14.4616
27.88	19.347
28.04	27.2725
28.2	41.5178
28.36	71.698
28.52	159.306
28.68	817.987
28.84	1461.59
29	4178.24
29.16	887.987
29.32	202.348
29.48	104.454
29.64	78.5002
29.8	78.9339
29.96	104.532
30.12	189.669
30.28	599.17
30.44	4553.57
30.6	1837.93
30.76	312.748
30.92	124.119
31.08	66.0492
31.24	40.9112
31.4	27.8056
31.56	20.12
31.72	15.2308
31.88	10.6246
32.04	0
32.2	0
32.36	0
32.52	0
32.68	9.78748
32.84	12.5526
33	16.6782
33.16	23.227
33.32	35.5731
33.48	57.9893
33.64	111.124
33.8	293.091
33.96	2059.76
34.12	2621.26
34.28	329.757
34.44	145.425
34.6	290.219
34.76	539.762
34.92	68.2334
35.08	34.2161
35.24	24.3916
35.4	21.5875
35.56	16.9016
35.72	42.1532
35.88	320.152
36.04	412.53
36.2	261.535
36.36	46.5239
36.52	24.4611
36.68	19.739
36.84	20.883
37	30.345
37.16	45.0709
37.32	81.3374
37.48	209.36
37.64	1702.11
37.8	1161.48
37.96	958.639
38.12	239.629
38.28	268.754
38.44	2922.3
38.6	426.208
38.76	117.253
38.92	70.6238
39.08	67.3947
39.24	94.2492
39.4	249.265
39.56	2747.98
39.72	946.563
39.88	167.734
40.04	74.6326
40.2	52.8722
40.36	54.0911
40.52	83.9966
40.68	191.301
40.84	1451.68
41	1233.26
41.16	170.146
41.32	64.3213
41.48	34.003
41.64	22.0685
41.8	16.6207
41.96	15.1724
42.12	19.3705
42.28	52.7469
42.44	494.49
42.6	38.3206
42.76	20.7989
42.92	44.6696
43.08	270.398
43.24	29.2874
43.4	21.2709
43.56	31.0388
43.72	70.213
43.88	473.036
44.04	734.02
44.2	372.386
44.36	342.212
44.52	52.586
44.68	47.4845
44.84	285.953
45	144.072
45.16	123.807
45.32	22.4421
45.48	10.662
45.64	9.35145
45.8	21.0251
45.96	271.31
46.12	23.2388
46.28	6.59978
46.44	2.64377
46.6	1.51363
46.76	0.899195
46.92	2.04419
47.08	2.40737
47.24	2.92403
47.4	3.83073
47.56	5.3532
47.72	8.58564
47.88	16.6175
48.04	40.8473
48.2	231.267
48.36	577.072
48.52	126.048
48.68	31.5379
48.84	30.4294
49	166.373
49.16	456.436
49.32	74.114
49.48	43.6962
49.64	10.7047
49.8	4.642
49.96	4.07182
50	4.48677