File: XRD_Data/standards/pbcl2.txt
5.02	0
5.18	0
5.34	0
5.5	0
5.66	0
5.82	0
5.98	0
6.14	0
6.3	0
6.46	0
6.62	0
6.78	0
6.94	0
7.1	0
7.26	0
7.42	0
7.58	0
7.74	0
7.9	0
8.06	0
8.22	0
8.38	0
8.54	0
8.7	0
8.86	0
9.02	0
9.18	0
9.34	0
9.5	0
9.66	0
9.82	0
9.98	0
10.14	0
10.3	0
10.46	0
10.62	0
10.78	0
10.94	0
11.1	0
11.26	0
11.42	0
11.58	0
11.74	0
11.9	0
12.06	0
12.22	0
12.38	0
12.54	0
12.7	0
12.86	0
13.02	0
13.18	0
13.34	0
13.5	0
13.66	0
13.82	0.0977884
13.98	0.12523
14.14	0.166067
14.3	0.230669
14.46	0.34177
14.62	0.557454
14.78	1.06497
14.94	2.76774
15.1	17.8271
15.26	31.2189
15.42	3.43164
15.58	1.21582
15.74	0.613206
15.9	0.368155
16.06	0.245163
16.22	0.174863
16.38	0.130962
16.54	0.101729
16.7	0
16.86	0
17.02	0
17.18	0
17.34	0
17.5	0
17.66	0
17.82	0
17.98	0
18.14	0
18.3	1.57209
18.46	2.03591
18.62	2.7397
18.78	3.88253
18.94	5.922
19.1	10.1115
19.26	20.9776
19.42	65.8809
19.58	856.683
19.74	159.514
19.9	33.1834
20.06	13.7749
20.22	7.4742
20.38	4.67883
20.54	6.64098
20.7	6.73254
20.86	7.61072
21.02	9.50648
21.18	12.0342
21.34	19.6399
21.5	46.1347
21.66	108.848
21.82	650.428
21.98	1104.33
22.14	156.719
22.3	101.791
22.46	133.455
22.62	309.156
22.78	2407.79
22.94	1738.63
23.1	403.458
23.26	1413.79
23.42	971.996
23.58	176.107
23.74	87.1299
23.9	63.1289
24.06	59.0583
24.22	69.2416
24.38	95.8613
24.54	199.765
24.7	715.09
24.86	10000
25.02	773.811
25.18	210.123
25.34	205.658
25.5	60.5806
25.66	35.0441
25.82	23.7096
25.98	17.2233
26.14	13.1044
26.3	10.3131
26.46	0.197706
26.62	0.151146
26.78	0.119283
26.94	0
27.1	0
27.26	0
27.42	0
27.58	0
27.74	0
27.9	0
28.06	0
28.22	0
28.38	0
28.54	0
28.7	0
28.86	0.401142
29.02	0.511485
29.18	1.402
29.34	3.30881
29.5	4.44923
29.66	6.34943
29.82	9.97753
29.98	18.9942
30.14	65.8516
30.3	250.728
30.46	126.706
30.62	1452.9
30.78	229.764
30.94	56.2898
31.1	30.4956
31.26	24.6583
31.42	26.4516
31.58	36.0685
31.74	66.6082
31.9	333.018
32.06	400.278
32.22	5318.32
32.38	405.564
32.54	107.574
32.7	48.4351
32.86	27.4006
33.02	17.5961
33.18	12.2482
33.34	9.01448
33.5	6.72766
33.66	5.31511
33.82	0
33.98	0
34.14	0
34.3	4.92174
34.46	6.22586
34.62	8.12589
34.78	11.0486
34.94	15.8836
35.1	24.7466
35.26	43.8651
35.42	97.0585
35.58	360.396
35.74	4954.54
35.9	370.232
36.06	99.0013
36.22	45.5895
36.38	29.2147
36.54	39.7637
36.7	60.1597
36.86	15.2467
37.02	10.7762
37.18	10.3655
37.34	9.49997
37.5	26.5838
37.66	311.281
37.82	74.6367
37.98	134.581
38.14	49.5826
38.3	13.2716
38.46	9.43881
38.62	8.79743
38.78	9.93599
38.94	12.8435
39.1	18.7689
39.26	34.239
39.42	71.5021
39.58	253.21
39.74	2729.06
39.9	654.304
40.06	109.389
40.22	63.8455
40.38	74.9314
40.54	202.832
40.7	2741.88
40.86	271.499
41.02	81.199
41.18	52.4861
41.34	55.2332
41.5	132.765
41.66	810.107
41.82	467.688
41.98	2504.49
42.14	204.592
42.3	76.8348
42.46	53.5356
42.62	58.9228
42.78	110.287
42.94	292.319
43.1	4117.42
43.26	481.375
43.42	111.607
43.58	48.346
43.74	27.1363
43.9	17.7746
44.06	13.2078
44.22	11.696
44.38	13.7692
44.54	34.8934
44.7	290.221
44.86	20.4347
45.02	10.2068
45.18	10.9579
45.34	17.8056
45.5	97.5438
45.66	46.9223
45.82	33.8741
45.98	58.1019
46.14	168.114
46.3	2143.81
46.46	472.561
46.62	1341.84
46.78	249.651
46.94	64.5654
47.1	34.2105
47.26	26.3468
47.42	32.7619
47.58	105.058
47.74	618.562
47.9	48.0865
48.06	15.282
48.22	7.3244
48.38	5.05301
48.54	5.32043
48.7	15.243
48.86	70.1883
49.02	6.39861
49.18	1.71871
49.34	0.830305
49.5	0.486873
49.66	0.31944
49.82	0.225528
49.98	0.167656
50	0.162025